Title: First ALMA Light Curve Constrains Refreshed Reverse 
       Shocks & Jet Magnetization in GRB 161219B  
Authors: Laskar T., Alexander K.D., Berger E., Guidorzi C., Margutti R., 
         Fong W.-F.., Kilpatrick C.D., Milne P., Drout M.R., Mundell C.G., 
         Kobayashi S., Lunnan R., Duran R.B., Menten K.M., Ioka K., 
         Williams P.K.G. 
Table: GRB 161219B: Log of VLA observations
================================================================================
Byte-by-byte Description of file: apjaacbcct5_mrt.txt
--------------------------------------------------------------------------------
   Bytes Format Units   Label   Explanations
--------------------------------------------------------------------------------
   1-  9 E9.3   d       Time    Mid-time of observation (1)
  11- 15 F5.2   GHz     Freq    Frequency
  17- 25 E9.3   uJy     Flux    Flux density at Freq
  27- 35 E9.3   uJy   e_Flux    Uncertainty in Flux
      37 I1     ---     Detect  Detection code (2)
--------------------------------------------------------------------------------
Note (1): Since discovery, 2016 December 19 18:48:39 UT.
Note (2): 
    1 = Yes;
    0 = No.
--------------------------------------------------------------------------------
5.111E-01 19.00 2.781E+02 2.860E+01 1
5.111E-01 21.00 1.562E+02 4.170E+01 1
5.111E-01 23.00 1.847E+02 3.610E+01 1
5.111E-01 25.00 2.424E+02 4.750E+01 1
5.330E-01 13.50 9.673E+02 4.560E+01 1
5.330E-01 16.00 7.661E+02 4.260E+01 1
5.482E-01  8.50 2.259E+02 1.520E+01 1
5.482E-01 11.00 1.858E+02 2.400E+01 1
5.605E-01  5.00 1.702E+02 2.550E+01 1
5.605E-01  7.40 9.250E+01 1.640E+01 1
1.432E+00 30.00 1.559E+03 4.700E+01 1
1.432E+00 33.50 1.330E+03 1.500E+02 1
1.459E+00 19.00 3.179E+03 2.700E+01 1
1.459E+00 21.00 3.505E+03 4.000E+01 1
1.459E+00 23.00 3.373E+03 4.000E+01 1
1.459E+00 25.00 2.954E+03 3.200E+01 1
1.479E+00 13.50 1.416E+03 1.400E+01 1
1.479E+00 16.00 1.162E+03 1.500E+01 1
1.507E+00  8.50 1.663E+03 3.140E+01 1
1.507E+00 11.00 1.702E+03 3.780E+01 1
1.521E+00  5.00 7.755E+02 2.970E+01 1
1.521E+00  7.40 1.353E+03 3.430E+01 1
3.555E+00  8.50 5.246E+02 3.040E+01 1
3.555E+00 11.00 3.935E+02 3.840E+01 1
3.569E+00  5.00 1.306E+03 4.690E+01 1
3.569E+00  7.40 1.044E+03 5.340E+01 1
4.429E+00 30.00 4.283E+02 4.690E+01 1
4.429E+00 33.50 2.302E+02 7.190E+01 1
4.456E+00 19.00 8.592E+02 3.560E+01 1
4.456E+00 21.00 8.467E+02 4.790E+01 1
4.456E+00 23.00 7.080E+02 5.290E+01 1
4.456E+00 25.00 5.850E+02 4.900E+01 1
4.476E+00 13.50 9.054E+02 6.170E+01 1
4.476E+00 16.00 7.898E+02 7.240E+01 1
8.444E+00 30.00 4.699E+02 4.050E+01 1
8.444E+00 33.50 3.992E+02 8.270E+01 1
8.473E+00 19.00 4.923E+02 3.030E+01 1
8.473E+00 21.00 5.184E+02 3.210E+01 1
8.473E+00 23.00 5.174E+02 3.340E+01 1
8.473E+00 25.00 5.167E+02 3.290E+01 1
8.495E+00 13.50 4.202E+02 2.000E+01 1
8.495E+00 16.00 4.621E+02 2.180E+01 1
8.510E+00  8.50 5.411E+02 2.200E+01 1
8.510E+00 11.00 4.101E+02 2.780E+01 1
8.523E+00  5.00 7.398E+02 2.170E+01 1
8.523E+00  7.40 6.295E+02 1.650E+01 1
1.649E+01 19.00 3.810E+02 2.600E+01 1
1.649E+01 21.00 4.257E+02 4.600E+01 1
1.649E+01 23.00 3.347E+02 6.180E+01 1
1.649E+01 25.00 3.543E+02 4.910E+01 1
1.650E+01 13.50 4.610E+02 2.640E+01 1
1.650E+01 16.00 4.127E+02 3.290E+01 1
1.650E+01  1.25 6.242E+02 8.310E+01 1
1.650E+01  1.64 7.253E+02 5.900E+01 1
1.650E+01  2.60 5.443E+02 4.040E+01 1
1.650E+01  3.40 5.422E+02 2.900E+01 1
1.651E+01  8.50 4.469E+02 3.180E+01 1
1.651E+01 11.00 4.689E+02 3.190E+01 1
1.652E+01  5.00 5.644E+02 2.460E+01 1
1.652E+01  7.40 5.336E+02 2.990E+01 1
2.437E+01 19.00 2.172E+02 4.890E+01 1
2.437E+01 21.00 2.078E+02 8.090E+01 1
2.437E+01 23.00 1.833E+02 6.620E+01 1
2.437E+01 25.00 1.044E+02 4.600E+01 1
2.439E+01 13.50 3.215E+02 3.650E+01 1
2.439E+01 16.00 2.623E+02 3.650E+01 1
2.441E+01  8.50 3.892E+02 2.700E+01 1
2.441E+01 11.00 3.572E+02 3.380E+01 1
2.442E+01  5.00 5.947E+02 2.150E+01 1
2.442E+01  7.40 4.320E+02 1.950E+01 1
2.443E+01  2.60 4.456E+02 3.190E+01 1
2.443E+01  3.40 4.843E+02 2.010E+01 1
2.445E+01  1.25 4.325E+02 4.140E+01 1
2.445E+01  1.64 4.241E+02 1.097E+02 1
7.928E+01 13.50 1.521E+02 1.160E+01 1
7.928E+01 16.00 1.202E+02 1.600E+01 1
7.930E+01  8.50 1.500E+02 2.080E+01 1
7.930E+01 11.00 1.412E+02 2.920E+01 1
7.932E+01  5.00 1.960E+02 2.100E+01 1
7.932E+01  7.40 1.656E+02 2.290E+01 1
7.934E+01  2.60 1.818E+02 5.760E+01 1
7.934E+01  3.40 1.841E+02 5.990E+01 1
1.581E+02  5.00 1.513E+02 1.870E+01 1
1.590E+02 13.50 7.900E+01 1.630E+01 1
1.590E+02 16.00 5.660E+01 8.600E+00 1
1.591E+02  8.50 1.135E+02 1.710E+01 1
1.591E+02 11.00 8.420E+01 1.710E+01 1
1.591E+02  7.40 1.296E+02 1.490E+01 1
